wavelength(nm), Y
1601.67, -5.84816
1601.56, -5.84816
1601.45, -5.84816
1601.35, -5.84816
1601.24, -5.84816
1601.13, -5.84816
1601.03, -5.84816
1600.92, -5.84816
1600.81, -5.84816
1600.71, -5.84816
1600.6, -5.84816
1600.49, -5.84816
1600.39, -5.84816
1600.28, -5.84816
1600.17, -5.84816
1600.07, -5.84816
1599.96, -5.84699
1599.85, -5.84389
1599.75, -5.8408
1599.64, -5.8377
1599.53, -5.8346
1599.43, -5.83151
1599.32, -5.82841
1599.21, -5.82532
1599.11, -5.82223
1599, -5.81914
1598.9, -5.81605
1598.79, -5.81296
1598.68, -5.80987
1598.58, -5.80678
1598.47, -5.8037
1598.36, -5.80062
1598.26, -5.79753
1598.15, -5.79445
1598.04, -5.79137
1597.94, -5.78829
1597.83, -5.78521
1597.73, -5.78218
1597.62, -5.77915
1597.51, -5.77612
1597.41, -5.77309
1597.3, -5.77007
1597.19, -5.76704
1597.09, -5.76402
1596.98, -5.76099
1596.88, -5.75797
1596.77, -5.75495
1596.66, -5.75193
1596.56, -5.74891
1596.45, -5.7459
1596.35, -5.74288
1596.24, -5.73986
1596.13, -5.73685
1596.03, -5.73384
1595.92, -5.73082
1595.82, -5.72781
1595.71, -5.7248
1595.6, -5.72181
1595.5, -5.71885
1595.39, -5.71588
1595.29, -5.71292
1595.18, -5.70996
1595.07, -5.70699
1594.97, -5.70403
1594.86, -5.70107
1594.76, -5.69812
1594.65, -5.69516
1594.54, -5.6922
1594.44, -5.68925
1594.33, -5.68629
1594.23, -5.68334
1594.12, -5.68038
1594.02, -5.67743
1593.91, -5.67448
1593.8, -5.67153
1593.7, -5.66858
1593.59, -5.66564
1593.49, -5.66269
1593.38, -5.65979
1593.28, -5.65688
1593.17, -5.65397
1593.06, -5.65107
1592.96, -5.64816
1592.85, -5.64526
1592.75, -5.64236
1592.64, -5.63946
1592.54, -5.63656
1592.43, -5.63366
1592.33, -5.63076
1592.22, -5.62787
1592.11, -5.62497
1592.01, -5.62207
1591.9, -5.61918
1591.8, -5.61629
1591.69, -5.6134
1591.59, -5.6105
1591.48, -5.60761
1591.38, -5.60473
1591.27, -5.60186
1591.16, -5.59901
1591.06, -5.59615
1590.95, -5.5933
1590.85, -5.59045
1590.74, -5.5876
1590.64, -5.58475
1590.53, -5.5819
1590.43, -5.57906
1590.32, -5.57621
1590.22, -5.57337
1590.11, -5.57052
1590.01, -5.56768
1589.9, -5.56484
1589.8, -5.56199
1589.69, -5.55915
1589.59, -5.55631
1589.48, -5.55348
1589.38, -5.55064
1589.27, -5.5478
1589.17, -5.54497
1589.06, -5.54217
1588.96, -5.53936
1588.85, -5.53656
1588.74, -5.53376
1588.64, -5.53095
1588.53, -5.52815
1588.43, -5.52535
1588.32, -5.52256
1588.22, -5.51976
1588.11, -5.51696
1588.01, -5.51416
1587.9, -5.51137
1587.8, -5.50857
1587.69, -5.50578
1587.59, -5.50299
1587.49, -5.5002
1587.38, -5.49741
1587.28, -5.49462
1587.17, -5.49183
1587.07, -5.48904
1586.96, -5.48627
1586.86, -5.48351
1586.75, -5.48075
1586.65, -5.47799
1586.54, -5.47524
1586.44, -5.47248
1586.33, -5.46972
1586.23, -5.46697
1586.12, -5.46422
1586.02, -5.46146
1585.91, -5.45871
1585.81, -5.45596
1585.7, -5.45321
1585.6, -5.45046
1585.49, -5.44771
1585.39, -5.44496
1585.29, -5.44221
1585.18, -5.43947
1585.08, -5.43672
1584.97, -5.43398
1584.87, -5.43124
1584.76, -5.42852
1584.66, -5.4258
1584.55, -5.42309
1584.45, -5.42037
1584.34, -5.41765
1584.24, -5.41494
1584.14, -5.41222
1584.03, -5.40951
1583.93, -5.4068
1583.82, -5.40408
1583.72, -5.40137
1583.61, -5.39866
1583.51, -5.39595
1583.4, -5.39324
1583.3, -5.39053
1583.2, -5.38783
1583.09, -5.38512
1582.99, -5.38242
1582.88, -5.37971
1582.78, -5.37701
1582.67, -5.37432
1582.57, -5.37164
1582.47, -5.36896
1582.36, -5.36628
1582.26, -5.3636
1582.15, -5.36092
1582.05, -5.35824
1581.95, -5.35557
1581.84, -5.35289
1581.74, -5.35021
1581.63, -5.34754
1581.53, -5.34487
1581.42, -5.34219
1581.32, -5.33952
1581.22, -5.33685
1581.11, -5.33418
1581.01, -5.33151
1580.9, -5.32884
1580.8, -5.32617
1580.7, -5.3235
1580.59, -5.32085
1580.49, -5.3182
1580.38, -5.31555
1580.28, -5.3129
1580.18, -5.31026
1580.07, -5.30761
1579.97, -5.30497
1579.86, -5.30233
1579.76, -5.29968
1579.66, -5.29704
1579.55, -5.2944
1579.45, -5.29176
1579.35, -5.28912
1579.24, -5.28648
1579.14, -5.28384
1579.03, -5.28121
1578.93, -5.27857
1578.83, -5.27594
1578.72, -5.2733
1578.62, -5.27067
1578.52, -5.26804
1578.41, -5.26542
1578.31, -5.2628
1578.2, -5.26019
1578.1, -5.25757
1578, -5.25496
1577.89, -5.25235
1577.79, -5.24973
1577.69, -5.24712
1577.58, -5.24451
1577.48, -5.2419
1577.38, -5.23929
1577.27, -5.23668
1577.17, -5.23408
1577.06, -5.23147
1576.96, -5.22886
1576.86, -5.22626
1576.75, -5.22365
1576.65, -5.22105
1576.55, -5.21845
1576.44, -5.21584
1576.34, -5.21325
1576.24, -5.21066
1576.13, -5.20808
1576.03, -5.20549
1575.93, -5.2029
1575.82, -5.20032
1575.72, -5.19774
1575.62, -5.19515
1575.51, -5.19257
1575.41, -5.18999
1575.31, -5.18741
1575.2, -5.18483
1575.1, -5.18225
1575, -5.17967
1574.89, -5.17709
1574.79, -5.17452
1574.69, -5.17194
1574.58, -5.16937
1574.48, -5.16679
1574.38, -5.16422
1574.27, -5.16165
1574.17, -5.15908
1574.07, -5.15652
1573.96, -5.15396
1573.86, -5.15141
1573.76, -5.14885
1573.66, -5.14629
1573.55, -5.14373
1573.45, -5.14118
1573.35, -5.13862
1573.24, -5.13607
1573.14, -5.13351
1573.04, -5.13096
1572.93, -5.12841
1572.83, -5.12586
1572.73, -5.12331
1572.63, -5.12076
1572.52, -5.11821
1572.42, -5.11566
1572.32, -5.11311
1572.21, -5.11057
1572.11, -5.10803
1572.01, -5.10549
1571.91, -5.10296
1571.8, -5.10042
1571.7, -5.09789
1571.6, -5.09535
1571.49, -5.09282
1571.39, -5.09029
1571.29, -5.08776
1571.19, -5.08523
1571.08, -5.0827
1570.98, -5.08017
1570.88, -5.07765
1570.77, -5.07512
1570.67, -5.07259
1570.57, -5.07007
1570.47, -5.06754
1570.36, -5.06502
1570.26, -5.06249
1570.16, -5.05997
1570.06, -5.05745
1569.95, -5.05494
1569.85, -5.05243
1569.75, -5.04992
1569.65, -5.04741
1569.54, -5.0449
1569.44, -5.04239
1569.34, -5.03988
1569.24, -5.03737
1569.13, -5.03486
1569.03, -5.03236
1568.93, -5.02985
1568.83, -5.02735
1568.72, -5.02484
1568.62, -5.02234
1568.52, -5.01984
1568.42, -5.01733
1568.31, -5.01483
1568.21, -5.01233
1568.11, -5.00983
1568.01, -5.00733
1567.9, -5.00484
1567.8, -5.00235
1567.7, -4.99986
1567.6, -4.99737
1567.5, -4.99489
1567.39, -4.9924
1567.29, -4.98991
1567.19, -4.98743
1567.09, -4.98494
1566.98, -4.98246
1566.88, -4.97997
1566.78, -4.97749
1566.68, -4.97501
1566.58, -4.97253
1566.47, -4.97005
1566.37, -4.96757
1566.27, -4.96509
1566.17, -4.96261
1566.06, -4.96013
1565.96, -4.95765
1565.86, -4.95518
1565.76, -4.95271
1565.66, -4.95024
1565.55, -4.94777
1565.45, -4.94531
1565.35, -4.94284
1565.25, -4.94038
1565.15, -4.93791
1565.04, -4.93545
1564.94, -4.93299
1564.84, -4.93052
1564.74, -4.92806
1564.64, -4.9256
1564.54, -4.92314
1564.43, -4.92068
1564.33, -4.91822
1564.23, -4.91576
1564.13, -4.91331
1564.03, -4.91085
1563.92, -4.90839
1563.82, -4.90594
1563.72, -4.90349
1563.62, -4.90105
1563.52, -4.8986
1563.42, -4.89616
1563.31, -4.89371
1563.21, -4.89127
1563.11, -4.88882
1563.01, -4.88638
1562.91, -4.88394
1562.8, -4.8815
1562.7, -4.87906
1562.6, -4.87662
1562.5, -4.87418
1562.4, -4.87174
1562.3, -4.86931
1562.2, -4.86687
1562.09, -4.86443
1561.99, -4.862
1561.89, -4.85956
1561.79, -4.85713
1561.69, -4.8547
1561.59, -4.85228
1561.48, -4.84985
1561.38, -4.84743
1561.28, -4.84501
1561.18, -4.84259
1561.08, -4.84017
1560.98, -4.83775
1560.88, -4.83533
1560.77, -4.83291
1560.67, -4.83049
1560.57, -4.82808
1560.47, -4.82566
1560.37, -4.82324
1560.27, -4.82083
1560.17, -4.81842
1560.06, -4.816
1559.96, -4.81359
1559.86, -4.81118
1559.76, -4.80876
1559.66, -4.80636
1559.56, -4.80396
1559.46, -4.80156
1559.36, -4.79916
1559.25, -4.79676
1559.15, -4.79436
1559.05, -4.79197
1558.95, -4.78957
1558.85, -4.78718
1558.75, -4.78478
1558.65, -4.78239
1558.55, -4.78
1558.45, -4.7776
1558.34, -4.77521
1558.24, -4.77282
1558.14, -4.77043
1558.04, -4.76804
1557.94, -4.76565
1557.84, -4.76326
1557.74, -4.76088
1557.64, -4.75849
1557.54, -4.75611
1557.44, -4.75374
1557.33, -4.75137
1557.23, -4.749
1557.13, -4.74663
1557.03, -4.74426
1556.93, -4.74189
1556.83, -4.73952
1556.73, -4.73715
1556.63, -4.73478
1556.53, -4.73242
1556.43, -4.73005
1556.33, -4.72769
1556.22, -4.72532
1556.12, -4.72296
1556.02, -4.72059
1555.92, -4.71823
1555.82, -4.71587
1555.72, -4.71351
1555.62, -4.71115
1555.52, -4.70879
1555.42, -4.70645
1555.32, -4.70411
1555.22, -4.70177
1555.12, -4.69942
1555.02, -4.69708
1554.92, -4.69474
1554.81, -4.69241
1554.71, -4.69007
1554.61, -4.68773
1554.51, -4.68539
1554.41, -4.68306
1554.31, -4.68072
1554.21, -4.67838
1554.11, -4.67605
1554.01, -4.67372
1553.91, -4.67138
1553.81, -4.66905
1553.71, -4.66672
1553.61, -4.66439
1553.51, -4.66205
1553.41, -4.65974
1553.31, -4.65743
1553.21, -4.65513
1553.11, -4.65282
1553.01, -4.65051
1552.91, -4.6482
1552.81, -4.6459
1552.7, -4.64359
1552.6, -4.64129
1552.5, -4.63898
1552.4, -4.63668
1552.3, -4.63438
1552.2, -4.63207
1552.1, -4.62977
1552, -4.62747
1551.9, -4.62517
1551.8, -4.62287
1551.7, -4.62057
1551.6, -4.61827
1551.5, -4.61597
1551.4, -4.61369
1551.3, -4.61142
1551.2, -4.60914
1551.1, -4.60687
1551, -4.6046
1550.9, -4.60233
1550.8, -4.60006
1550.7, -4.59779
1550.6, -4.59553
1550.5, -4.59326
1550.4, -4.59099
1550.3, -4.58873
1550.2, -4.58646
1550.1, -4.5842
1550, -4.58193
1549.9, -4.57967
1549.8, -4.5774
1549.7, -4.57514
1549.6, -4.57288
1549.5, -4.57062
1549.4, -4.56836
1549.3, -4.56612
1549.2, -4.56388
1549.1, -4.56164
1549, -4.5594
1548.9, -4.55716
1548.8, -4.55493
1548.7, -4.55269
1548.6, -4.55045
1548.5, -4.54822
1548.4, -4.54599
1548.3, -4.54377
1548.2, -4.54155
1548.1, -4.53933
1548, -4.53712
1547.9, -4.5349
1547.8, -4.53269
1547.7, -4.53048
1547.6, -4.52826
1547.5, -4.52605
1547.4, -4.52384
1547.3, -4.52165
1547.21, -4.51946
1547.11, -4.51728
1547.01, -4.51509
1546.91, -4.51291
1546.81, -4.51073
1546.71, -4.50854
1546.61, -4.50636
1546.51, -4.50418
1546.41, -4.502
1546.31, -4.49982
1546.21, -4.49764
1546.11, -4.49546
1546.01, -4.49328
1545.91, -4.4911
1545.81, -4.48893
1545.71, -4.48675
1545.61, -4.48457
1545.51, -4.4824
1545.41, -4.48022
1545.31, -4.47805
1545.21, -4.47592
1545.12, -4.47378
1545.02, -4.47165
1544.92, -4.46951
1544.82, -4.46738
1544.72, -4.46525
1544.62, -4.46311
1544.52, -4.46098
1544.42, -4.45885
1544.32, -4.45672
1544.22, -4.45459
1544.12, -4.45246
1544.02, -4.45033
1543.92, -4.4482
1543.82, -4.44607
1543.73, -4.44394
1543.63, -4.44181
1543.53, -4.43969
1543.43, -4.43756
1543.33, -4.43543
1543.23, -4.43334
1543.13, -4.43126
1543.03, -4.42918
1542.93, -4.4271
1542.83, -4.42502
1542.73, -4.42294
1542.64, -4.42086
1542.54, -4.41878
1542.44, -4.4167
1542.34, -4.41462
1542.24, -4.41254
1542.14, -4.41047
1542.04, -4.40839
1541.94, -4.40631
1541.84, -4.40424
1541.74, -4.40216
1541.65, -4.40009
1541.55, -4.39801
1541.45, -4.39594
1541.35, -4.39387
1541.25, -4.39181
1541.15, -4.38978
1541.05, -4.38776
1540.95, -4.38573
1540.85, -4.38371
1540.76, -4.38169
1540.66, -4.37966
1540.56, -4.37764
1540.46, -4.37562
1540.36, -4.3736
1540.26, -4.37158
1540.16, -4.36956
1540.06, -4.36754
1539.97, -4.36552
1539.87, -4.3635
1539.77, -4.36148
1539.67, -4.35946
1539.57, -4.35744
1539.47, -4.35542
1539.37, -4.35341
1539.27, -4.35139
1539.18, -4.34942
1539.08, -4.34746
1538.98, -4.34549
1538.88, -4.34353
1538.78, -4.34157
1538.68, -4.3396
1538.58, -4.33764
1538.49, -4.33568
1538.39, -4.33372
1538.29, -4.33175
1538.19, -4.32979
1538.09, -4.32783
1537.99, -4.32587
1537.9, -4.32391
1537.8, -4.32196
1537.7, -4.32
1537.6, -4.31804
1537.5, -4.31608
1537.4, -4.31412
1537.3, -4.31217
1537.21, -4.31024
1537.11, -4.30834
1537.01, -4.30643
1536.91, -4.30453
1536.81, -4.30263
1536.71, -4.30073
1536.62, -4.29883
1536.52, -4.29694
1536.42, -4.29504
1536.32, -4.29314
1536.22, -4.29124
1536.13, -4.28934
1536.03, -4.28745
1535.93, -4.28555
1535.83, -4.28365
1535.73, -4.28176
1535.63, -4.27986
1535.54, -4.27797
1535.44, -4.27607
1535.34, -4.27418
1535.24, -4.27229
1535.14, -4.27045
1535.05, -4.26862
1534.95, -4.26678
1534.85, -4.26495
1534.75, -4.26312
1534.65, -4.26128
1534.56, -4.25945
1534.46, -4.25762
1534.36, -4.25579
1534.26, -4.25395
1534.16, -4.25212
1534.07, -4.25029
1533.97, -4.24846
1533.87, -4.24663
1533.77, -4.2448
1533.67, -4.24297
1533.58, -4.24114
1533.48, -4.23931
1533.38, -4.23748
1533.28, -4.23566
1533.18, -4.23387
1533.09, -4.2321
1532.99, -4.23033
1532.89, -4.22857
1532.79, -4.2268
1532.7, -4.22504
1532.6, -4.22327
1532.5, -4.22151
1532.4, -4.21975
1532.3, -4.21798
1532.21, -4.21622
1532.11, -4.21446
1532.01, -4.21269
1531.91, -4.21093
1531.82, -4.20917
1531.72, -4.20741
1531.62, -4.20565
1531.52, -4.20389
1531.43, -4.20213
1531.33, -4.20037
1531.23, -4.19862
1531.13, -4.19693
1531.03, -4.19523
1530.94, -4.19354
1530.84, -4.19184
1530.74, -4.19015
1530.64, -4.18845
1530.55, -4.18676
1530.45, -4.18507
1530.35, -4.18338
1530.25, -4.18168
1530.16, -4.17999
1530.06, -4.1783
1529.96, -4.17661
1529.87, -4.17492
1529.77, -4.17323
1529.67, -4.17154
1529.57, -4.16985
1529.48, -4.16816
1529.38, -4.16647
1529.28, -4.16478
1529.18, -4.16314
1529.09, -4.16152
1528.99, -4.1599
1528.89, -4.15828
1528.79, -4.15666
1528.7, -4.15503
1528.6, -4.15341
1528.5, -4.15179
1528.41, -4.15017
1528.31, -4.14856
1528.21, -4.14694
1528.11, -4.14532
1528.02, -4.1437
1527.92, -4.14208
1527.82, -4.14046
1527.72, -4.13884
1527.63, -4.13723
1527.53, -4.13561
1527.43, -4.13399
1527.34, -4.13238
1527.24, -4.13078
1527.14, -4.12924
1527.05, -4.12769
1526.95, -4.12614
1526.85, -4.1246
1526.75, -4.12305
1526.66, -4.12151
1526.56, -4.11996
1526.46, -4.11841
1526.37, -4.11687
1526.27, -4.11532
1526.17, -4.11378
1526.08, -4.11224
1525.98, -4.11069
1525.88, -4.10915
1525.78, -4.10761
1525.69, -4.10606
1525.59, -4.10452
1525.49, -4.10298
1525.4, -4.10143
1525.3, -4.09989
1525.2, -4.09842
1525.11, -4.09694
1525.01, -4.09547
1524.91, -4.094
1524.82, -4.09253
1524.72, -4.09106
1524.62, -4.08959
1524.53, -4.08812
1524.43, -4.08665
1524.33, -4.08519
1524.24, -4.08372
1524.14, -4.08225
1524.04, -4.08078
1523.95, -4.07931
1523.85, -4.07784
1523.75, -4.07638
1523.66, -4.07491
1523.56, -4.07344
1523.46, -4.07198
1523.37, -4.07051
1523.27, -4.06908
1523.17, -4.06768
1523.08, -4.06629
1522.98, -4.0649
1522.88, -4.0635
1522.79, -4.06211
1522.69, -4.06072
1522.59, -4.05932
1522.5, -4.05793
1522.4, -4.05654
1522.3, -4.05514
1522.21, -4.05375
1522.11, -4.05236
1522.01, -4.05097
1521.92, -4.04958
1521.82, -4.04819
1521.73, -4.0468
1521.63, -4.0454
1521.53, -4.04401
1521.44, -4.04262
1521.34, -4.04124
1521.24, -4.03992
1521.15, -4.0386
1521.05, -4.03729
1520.95, -4.03597
1520.86, -4.03465
1520.76, -4.03334
1520.67, -4.03202
1520.57, -4.0307
1520.47, -4.02939
1520.38, -4.02807
1520.28, -4.02675
1520.18, -4.02544
1520.09, -4.02412
1519.99, -4.02281
1519.9, -4.02149
1519.8, -4.02018
1519.7, -4.01887
1519.61, -4.01755
1519.51, -4.01624
1519.42, -4.01492
1519.32, -4.01366
1519.22, -4.01241
1519.13, -4.01117
1519.03, -4.00993
1518.94, -4.00869
1518.84, -4.00745
1518.74, -4.00621
1518.65, -4.00497
1518.55, -4.00373
1518.46, -4.00249
1518.36, -4.00125
1518.26, -4.00001
1518.17, -3.99877
1518.07, -3.99753
1517.98, -3.99629
1517.88, -3.99506
1517.78, -3.99382
1517.69, -3.99258
1517.59, -3.99134
1517.5, -3.9901
1517.4, -3.98888
1517.3, -3.98771
1517.21, -3.98655
1517.11, -3.98538
1517.02, -3.98421
1516.92, -3.98305
1516.83, -3.98188
1516.73, -3.98072
1516.63, -3.97955
1516.54, -3.97839
1516.44, -3.97722
1516.35, -3.97606
1516.25, -3.97489
1516.16, -3.97373
1516.06, -3.97257
1515.96, -3.9714
1515.87, -3.97024
1515.77, -3.96907
1515.68, -3.96791
1515.58, -3.96675
1515.49, -3.96558
1515.39, -3.96447
1515.29, -3.96338
1515.2, -3.96229
1515.1, -3.9612
1515.01, -3.9601
1514.91, -3.95901
1514.82, -3.95792
1514.72, -3.95683
1514.63, -3.95574
1514.53, -3.95464
1514.44, -3.95355
1514.34, -3.95246
1514.24, -3.95137
1514.15, -3.95028
1514.05, -3.94919
1513.96, -3.9481
1513.86, -3.94701
1513.77, -3.94591
1513.67, -3.94482
1513.58, -3.94373
1513.48, -3.94267
1513.39, -3.94165
1513.29, -3.94062
1513.2, -3.9396
1513.1, -3.93858
1513, -3.93756
1512.91, -3.93654
1512.81, -3.93552
1512.72, -3.9345
1512.62, -3.93347
1512.53, -3.93245
1512.43, -3.93143
1512.34, -3.93041
1512.24, -3.92939
1512.15, -3.92837
1512.05, -3.92735
1511.96, -3.92633
1511.86, -3.92531
1511.77, -3.92429
1511.67, -3.92327
1511.58, -3.92225
1511.48, -3.92129
1511.39, -3.92034
1511.29, -3.91939
1511.2, -3.91843
1511.1, -3.91748
1511.01, -3.91653
1510.91, -3.91558
1510.82, -3.91462
1510.72, -3.91367
1510.63, -3.91272
1510.53, -3.91177
1510.44, -3.91081
1510.34, -3.90986
1510.25, -3.90891
1510.15, -3.90796
1510.06, -3.90701
1509.96, -3.90606
1509.87, -3.9051
1509.77, -3.90415
1509.68, -3.9032
1509.58, -3.90228
1509.49, -3.90139
1509.39, -3.90051
1509.3, -3.89962
1509.2, -3.89873
1509.11, -3.89784
1509.01, -3.89696
1508.92, -3.89607
1508.82, -3.89518
1508.73, -3.8943
1508.63, -3.89341
1508.54, -3.89252
1508.44, -3.89164
1508.35, -3.89075
1508.26, -3.88986
1508.16, -3.88898
1508.07, -3.88809
1507.97, -3.88721
1507.88, -3.88632
1507.78, -3.88543
1507.69, -3.88455
1507.59, -3.88373
1507.5, -3.8829
1507.4, -3.88208
1507.31, -3.88126
1507.21, -3.88043
1507.12, -3.87961
1507.03, -3.87878
1506.93, -3.87796
1506.84, -3.87714
1506.74, -3.87631
1506.65, -3.87549
1506.55, -3.87467
1506.46, -3.87384
1506.36, -3.87302
1506.27, -3.8722
1506.18, -3.87137
1506.08, -3.87055
1505.99, -3.86973
1505.89, -3.8689
1505.8, -3.86808
1505.7, -3.8673
1505.61, -3.86653
1505.51, -3.86577
1505.42, -3.86501
1505.33, -3.86424
1505.23, -3.86348
1505.14, -3.86272
1505.04, -3.86195
1504.95, -3.86119
1504.85, -3.86043
1504.76, -3.85966
1504.67, -3.8589
1504.57, -3.85814
1504.48, -3.85738
1504.38, -3.85661
1504.29, -3.85585
1504.19, -3.85509
1504.1, -3.85433
1504.01, -3.85356
1503.91, -3.8528
1503.82, -3.85205
1503.72, -3.85135
1503.63, -3.85064
1503.54, -3.84994
1503.44, -3.84923
1503.35, -3.84853
1503.25, -3.84782
1503.16, -3.84712
1503.07, -3.84641
1502.97, -3.84571
1502.88, -3.845
1502.78, -3.8443
1502.69, -3.84359
1502.6, -3.84289
1502.5, -3.84219
1502.41, -3.84148
1502.31, -3.84078
1502.22, -3.84007
1502.13, -3.83937
1502.03, -3.83867
1501.94, -3.83796
1501.84, -3.8373
1501.75, -3.83665
1501.66, -3.836
1601.67, -5.85106
1601.56, -5.85106
1601.45, -5.85106
1601.35, -5.85106
1601.24, -5.85106
1601.13, -5.85106
1601.03, -5.85106
1600.92, -5.85106
1600.81, -5.85106
1600.71, -5.85106
1600.6, -5.85106
1600.49, -5.85106
1600.39, -5.85106
1600.28, -5.85106
1600.17, -5.85106
1600.07, -5.85106
1599.96, -5.84989
1599.85, -5.84679
1599.75, -5.84368
1599.64, -5.84058
1599.53, -5.83748
1599.43, -5.83438
1599.32, -5.83129
1599.21, -5.82819
1599.11, -5.82509
1599, -5.822
1598.9, -5.8189
1598.79, -5.81581
1598.68, -5.81272
1598.58, -5.80963
1598.47, -5.80654
1598.36, -5.80345
1598.26, -5.80037
1598.15, -5.79728
1598.04, -5.79419
1597.94, -5.79111
1597.83, -5.78803
1597.73, -5.78499
1597.62, -5.78196
1597.51, -5.77893
1597.41, -5.7759
1597.3, -5.77287
1597.19, -5.76984
1597.09, -5.76681
1596.98, -5.76378
1596.88, -5.76076
1596.77, -5.75773
1596.66, -5.75471
1596.56, -5.75169
1596.45, -5.74866
1596.35, -5.74564
1596.24, -5.74262
1596.13, -5.73961
1596.03, -5.73659
1595.92, -5.73357
1595.82, -5.73056
1595.71, -5.72754
1595.6, -5.72455
1595.5, -5.72158
1595.39, -5.71861
1595.29, -5.71565
1595.18, -5.71268
1595.07, -5.70972
1594.97, -5.70675
1594.86, -5.70379
